X590
Integration time [ms]: 40000.000
Averaging Nr. [scans]: 1
Smoothing Nr. [pixels]: 0
Data measured with spectrometer [name]: 0604028U1
Wave   ;Sample   ;Dark     ;Reference;Scope
[nm]   ;[counts] ;[counts] ;[counts] 

 542.89;12432.000;    0.000;    0.000
 543.05;14968.000;    0.000;    0.000
 543.21;20988.000;    0.000;    0.000
 543.37;18916.000;    0.000;    0.000
 543.54;15584.000;    0.000;    0.000
 543.70;14684.000;    0.000;    0.000
 543.86;13308.000;    0.000;    0.000
 544.03;17872.000;    0.000;    0.000
 544.19;17068.000;    0.000;    0.000
 544.35;17124.000;    0.000;    0.000
 544.51;18952.000;    0.000;    0.000
 544.68;21536.000;    0.000;    0.000
 544.84;13020.000;    0.000;    0.000
 545.00;15944.000;    0.000;    0.000
 545.17;21944.000;    0.000;    0.000
 545.33;15892.000;    0.000;    0.000
 545.49; 9964.000;    0.000;    0.000
 545.65;16456.000;    0.000;    0.000
 545.82;15536.000;    0.000;    0.000
 545.98;19252.000;    0.000;    0.000
 546.14;13908.000;    0.000;    0.000
 546.31;12920.000;    0.000;    0.000
 546.47;20968.000;    0.000;    0.000
 546.63;16836.000;    0.000;    0.000
 546.79;14480.000;    0.000;    0.000
 546.96;14952.000;    0.000;    0.000
 547.12;15780.000;    0.000;    0.000
 547.28;18432.000;    0.000;    0.000
 547.44; 9284.000;    0.000;    0.000
 547.61;11820.000;    0.000;    0.000
 547.77;12060.000;    0.000;    0.000
 547.93;20036.000;    0.000;    0.000
 548.10;15788.000;    0.000;    0.000
 548.26;14360.000;    0.000;    0.000
 548.42;17384.000;    0.000;    0.000
 548.58;21900.000;    0.000;    0.000
 548.75;19228.000;    0.000;    0.000
 548.91;12688.000;    0.000;    0.000
 549.07;14888.000;    0.000;    0.000
 549.23;23328.000;    0.000;    0.000
 549.40;18612.000;    0.000;    0.000
 549.56;16836.000;    0.000;    0.000
 549.72;13280.000;    0.000;    0.000
 549.88;18724.000;    0.000;    0.000
 550.05;15636.000;    0.000;    0.000
 550.21;13852.000;    0.000;    0.000
 550.37;14248.000;    0.000;    0.000
 550.53;12712.000;    0.000;    0.000
 550.70;12264.000;    0.000;    0.000
 550.86;17540.000;    0.000;    0.000
 551.02;18768.000;    0.000;    0.000
 551.19;17896.000;    0.000;    0.000
 551.35;12240.000;    0.000;    0.000
 551.51;13668.000;    0.000;    0.000
 551.67;11380.000;    0.000;    0.000
 551.84;14928.000;    0.000;    0.000
 552.00;20476.000;    0.000;    0.000
 552.16;17716.000;    0.000;    0.000
 552.32;11268.000;    0.000;    0.000
 552.49;17904.000;    0.000;    0.000
 552.65;12552.000;    0.000;    0.000
 552.81;16560.000;    0.000;    0.000
 552.97;11208.000;    0.000;    0.000
 553.14;16132.000;    0.000;    0.000
 553.30;14036.000;    0.000;    0.000
 553.46;13224.000;    0.000;    0.000
 553.62;17556.000;    0.000;    0.000
 553.79;17700.000;    0.000;    0.000
 553.95;18356.000;    0.000;    0.000
 554.11;19464.000;    0.000;    0.000
 554.27;20444.000;    0.000;    0.000
 554.43;19136.000;    0.000;    0.000
 554.60;15224.000;    0.000;    0.000
 554.76;19428.000;    0.000;    0.000
 554.92;12016.000;    0.000;    0.000
 555.08;19876.000;    0.000;    0.000
 555.25;15768.000;    0.000;    0.000
 555.41;15888.000;    0.000;    0.000
 555.57;13728.000;    0.000;    0.000
 555.73;18188.000;    0.000;    0.000
 555.90;12888.000;    0.000;    0.000
 556.06; 7988.000;    0.000;    0.000
 556.22;19496.000;    0.000;    0.000
 556.38;17344.000;    0.000;    0.000
 556.55;12620.000;    0.000;    0.000
 556.71;16916.000;    0.000;    0.000
 556.87;15588.000;    0.000;    0.000
 557.03;14620.000;    0.000;    0.000
 557.19; 8824.000;    0.000;    0.000
 557.36;14620.000;    0.000;    0.000
 557.52;16120.000;    0.000;    0.000
 557.68;19044.000;    0.000;    0.000
 557.84;11388.000;    0.000;    0.000
 558.01;12392.000;    0.000;    0.000
 558.17;13672.000;    0.000;    0.000
 558.33;17712.000;    0.000;    0.000
 558.49;19132.000;    0.000;    0.000
 558.65;14628.000;    0.000;    0.000
 558.82;18220.000;    0.000;    0.000
 558.98;16040.000;    0.000;    0.000
 559.14;19640.000;    0.000;    0.000
 559.30;11852.000;    0.000;    0.000
 559.47;17180.000;    0.000;    0.000
 559.63;16476.000;    0.000;    0.000
 559.79;17240.000;    0.000;    0.000
 559.95;18220.000;    0.000;    0.000
 560.11;17460.000;    0.000;    0.000
 560.28;22396.000;    0.000;    0.000
 560.44;13876.000;    0.000;    0.000
 560.60;19508.000;    0.000;    0.000
 560.76;16504.000;    0.000;    0.000
 560.93;15832.000;    0.000;    0.000
 561.09;11680.000;    0.000;    0.000
 561.25; 9264.000;    0.000;    0.000
 561.41;13084.000;    0.000;    0.000
 561.57;22324.000;    0.000;    0.000
 561.74;11980.000;    0.000;    0.000
 561.90;16260.000;    0.000;    0.000
 562.06;18892.000;    0.000;    0.000
 562.22;12856.000;    0.000;    0.000
 562.38;13704.000;    0.000;    0.000
 562.55;10540.000;    0.000;    0.000
 562.71;16496.000;    0.000;    0.000
 562.87;13388.000;    0.000;    0.000
 563.03;10540.000;    0.000;    0.000
 563.19;13456.000;    0.000;    0.000
 563.36;16668.000;    0.000;    0.000
 563.52;15088.000;    0.000;    0.000
 563.68;18292.000;    0.000;    0.000
 563.84;10676.000;    0.000;    0.000
 564.00;22404.000;    0.000;    0.000
 564.17;15416.000;    0.000;    0.000
 564.33;13256.000;    0.000;    0.000
 564.49;14056.000;    0.000;    0.000
 564.65;11680.000;    0.000;    0.000
 564.81;14056.000;    0.000;    0.000
 564.98;14436.000;    0.000;    0.000
 565.14;10784.000;    0.000;    0.000
 565.30;15420.000;    0.000;    0.000
 565.46;17072.000;    0.000;    0.000
 565.62;14084.000;    0.000;    0.000
 565.79;13192.000;    0.000;    0.000
 565.95;16684.000;    0.000;    0.000
 566.11;20416.000;    0.000;    0.000
 566.27;17196.000;    0.000;    0.000
 566.43;18436.000;    0.000;    0.000
 566.59;12324.000;    0.000;    0.000
 566.76;19260.000;    0.000;    0.000
 566.92;11664.000;    0.000;    0.000
 567.08;12180.000;    0.000;    0.000
 567.24;18720.000;    0.000;    0.000
 567.40;15980.000;    0.000;    0.000
 567.57;13600.000;    0.000;    0.000
 567.73;29948.000;    0.000;    0.000
 567.89;15716.000;    0.000;    0.000
 568.05;11956.000;    0.000;    0.000
 568.21;18516.000;    0.000;    0.000
 568.37; 8084.000;    0.000;    0.000
 568.54;12020.000;    0.000;    0.000
 568.70;14000.000;    0.000;    0.000
 568.86;15844.000;    0.000;    0.000
 569.02;12732.000;    0.000;    0.000
 569.18;15712.000;    0.000;    0.000
 569.34;10080.000;    0.000;    0.000
 569.51;14552.000;    0.000;    0.000
 569.67;19728.000;    0.000;    0.000
 569.83;13428.000;    0.000;    0.000
 569.99;16912.000;    0.000;    0.000
 570.15;14920.000;    0.000;    0.000
 570.31;12776.000;    0.000;    0.000
 570.48; 9844.000;    0.000;    0.000
 570.64;15092.000;    0.000;    0.000
 570.80;11092.000;    0.000;    0.000
 570.96;12048.000;    0.000;    0.000
 571.12;16652.000;    0.000;    0.000
 571.28;24056.000;    0.000;    0.000
 571.45; 8720.000;    0.000;    0.000
 571.61;15064.000;    0.000;    0.000
 571.77;14468.000;    0.000;    0.000
 571.93;22124.000;    0.000;    0.000
 572.09;10984.000;    0.000;    0.000
 572.25; 9800.000;    0.000;    0.000
 572.42;17872.000;    0.000;    0.000
 572.58;10192.000;    0.000;    0.000
 572.74; 9848.000;    0.000;    0.000
 572.90;18520.000;    0.000;    0.000
 573.06;11540.000;    0.000;    0.000
 573.22;12588.000;    0.000;    0.000
 573.39;15756.000;    0.000;    0.000
 573.55;11840.000;    0.000;    0.000
 573.71;14300.000;    0.000;    0.000
 573.87;18016.000;    0.000;    0.000
 574.03; 9676.000;    0.000;    0.000
 574.19;12632.000;    0.000;    0.000
 574.35;11224.000;    0.000;    0.000
 574.52;10796.000;    0.000;    0.000
 574.68;17720.000;    0.000;    0.000
 574.84;17952.000;    0.000;    0.000
 575.00;12976.000;    0.000;    0.000
 575.16;13188.000;    0.000;    0.000
 575.32; 8360.000;    0.000;    0.000
 575.48;10288.000;    0.000;    0.000
 575.65;12856.000;    0.000;    0.000
 575.81;13740.000;    0.000;    0.000
 575.97;10256.000;    0.000;    0.000
 576.13;22496.000;    0.000;    0.000
 576.29;10648.000;    0.000;    0.000
 576.45;27044.000;    0.000;    0.000
 576.61;11708.000;    0.000;    0.000
 576.78;17124.000;    0.000;    0.000
 576.94;15248.000;    0.000;    0.000
 577.10;13432.000;    0.000;    0.000
 577.26;15452.000;    0.000;    0.000
 577.42;20120.000;    0.000;    0.000
 577.58;13136.000;    0.000;    0.000
 577.74;14336.000;    0.000;    0.000
 577.90;12848.000;    0.000;    0.000
 578.07;15100.000;    0.000;    0.000
 578.23;16608.000;    0.000;    0.000
 578.39;12480.000;    0.000;    0.000
 578.55;12320.000;    0.000;    0.000
 578.71;14988.000;    0.000;    0.000
 578.87;15232.000;    0.000;    0.000
 579.03;13284.000;    0.000;    0.000
 579.20;11692.000;    0.000;    0.000
 579.36;16508.000;    0.000;    0.000
 579.52;10984.000;    0.000;    0.000
 579.68;17436.000;    0.000;    0.000
 579.84; 9852.000;    0.000;    0.000
 580.00;12056.000;    0.000;    0.000
 580.16;10788.000;    0.000;    0.000
 580.32;17084.000;    0.000;    0.000
 580.48; 7164.000;    0.000;    0.000
 580.65;21432.000;    0.000;    0.000
 580.81;10524.000;    0.000;    0.000
 580.97;13544.000;    0.000;    0.000
 581.13;14568.000;    0.000;    0.000
 581.29; 9876.000;    0.000;    0.000
 581.45;10092.000;    0.000;    0.000
 581.61;13148.000;    0.000;    0.000
 581.77;12132.000;    0.000;    0.000
 581.94;11656.000;    0.000;    0.000
 582.10;20092.000;    0.000;    0.000
 582.26;21176.000;    0.000;    0.000
 582.42; 9724.000;    0.000;    0.000
 582.58;12340.000;    0.000;    0.000
 582.74;13316.000;    0.000;    0.000
 582.90;12796.000;    0.000;    0.000
 583.06;12712.000;    0.000;    0.000
 583.22;13784.000;    0.000;    0.000
 583.38;17392.000;    0.000;    0.000
 583.55;12712.000;    0.000;    0.000
 583.71;13972.000;    0.000;    0.000
 583.87;18984.000;    0.000;    0.000
 584.03;15548.000;    0.000;    0.000
 584.19;15388.000;    0.000;    0.000
 584.35; 8800.000;    0.000;    0.000
 584.51;16216.000;    0.000;    0.000
 584.67;14464.000;    0.000;    0.000
 584.83;13424.000;    0.000;    0.000
 584.99;12104.000;    0.000;    0.000
 585.16;15344.000;    0.000;    0.000
 585.32;22148.000;    0.000;    0.000
 585.48;14572.000;    0.000;    0.000
 585.64;15124.000;    0.000;    0.000
 585.80;12164.000;    0.000;    0.000
 585.96;19132.000;    0.000;    0.000
 586.12;14552.000;    0.000;    0.000
 586.28;20568.000;    0.000;    0.000
 586.44;10548.000;    0.000;    0.000
 586.60;19404.000;    0.000;    0.000
 586.77;11536.000;    0.000;    0.000
 586.93;17528.000;    0.000;    0.000
 587.09;12808.000;    0.000;    0.000
 587.25;16160.000;    0.000;    0.000
 587.41;14536.000;    0.000;    0.000
 587.57;20016.000;    0.000;    0.000
 587.73;13944.000;    0.000;    0.000
 587.89;18256.000;    0.000;    0.000
 588.05;22740.000;    0.000;    0.000
 588.21;11832.000;    0.000;    0.000
 588.37;17820.000;    0.000;    0.000
 588.53;19776.000;    0.000;    0.000
 588.70;17424.000;    0.000;    0.000
 588.86;17104.000;    0.000;    0.000
 589.02;15720.000;    0.000;    0.000
 589.18;14632.000;    0.000;    0.000
 589.34;20284.000;    0.000;    0.000
 589.50;13100.000;    0.000;    0.000
 589.66;20608.000;    0.000;    0.000
 589.82;18568.000;    0.000;    0.000
 589.98;17956.000;    0.000;    0.000
 590.14;14452.000;    0.000;    0.000
 590.30;10976.000;    0.000;    0.000
 590.46;16656.000;    0.000;    0.000
 590.62;19188.000;    0.000;    0.000
 590.78;11464.000;    0.000;    0.000
 590.95;17892.000;    0.000;    0.000
 591.11;18772.000;    0.000;    0.000
 591.27;15496.000;    0.000;    0.000
 591.43;15852.000;    0.000;    0.000
 591.59;21016.000;    0.000;    0.000
 591.75;20748.000;    0.000;    0.000
 591.91;17272.000;    0.000;    0.000
 592.07;20248.000;    0.000;    0.000
 592.23;19600.000;    0.000;    0.000
 592.39;19792.000;    0.000;    0.000
 592.55;16596.000;    0.000;    0.000
 592.71;16000.000;    0.000;    0.000
 592.87;15556.000;    0.000;    0.000
 593.03;15532.000;    0.000;    0.000
 593.19;15660.000;    0.000;    0.000
 593.35;16212.000;    0.000;    0.000
 593.52;18964.000;    0.000;    0.000
 593.68;14828.000;    0.000;    0.000
 593.84;15980.000;    0.000;    0.000
 594.00;16448.000;    0.000;    0.000
 594.16;19244.000;    0.000;    0.000
 594.32;15008.000;    0.000;    0.000
 594.48;18188.000;    0.000;    0.000
 594.64;16152.000;    0.000;    0.000
 594.80;14760.000;    0.000;    0.000
 594.96;12460.000;    0.000;    0.000
 595.12;17076.000;    0.000;    0.000
 595.28;11936.000;    0.000;    0.000
 595.44;15428.000;    0.000;    0.000
 595.60;10308.000;    0.000;    0.000
 595.76; 9900.000;    0.000;    0.000
 595.92;14476.000;    0.000;    0.000
 596.08; 9544.000;    0.000;    0.000
 596.24;12548.000;    0.000;    0.000
 596.40;17440.000;    0.000;    0.000
 596.56;12240.000;    0.000;    0.000
 596.73;12272.000;    0.000;    0.000
 596.89;18380.000;    0.000;    0.000
 597.05;15604.000;    0.000;    0.000
 597.21;12888.000;    0.000;    0.000
 597.37;15100.000;    0.000;    0.000
 597.53;13696.000;    0.000;    0.000
 597.69;12512.000;    0.000;    0.000
 597.85;14468.000;    0.000;    0.000
 598.01;11940.000;    0.000;    0.000
 598.17;12724.000;    0.000;    0.000
 598.33;13148.000;    0.000;    0.000
 598.49;15212.000;    0.000;    0.000
 598.65;10212.000;    0.000;    0.000
 598.81;11604.000;    0.000;    0.000
 598.97;10520.000;    0.000;    0.000
 599.13;13016.000;    0.000;    0.000
 599.29;14588.000;    0.000;    0.000
 599.45;10308.000;    0.000;    0.000
 599.61;14980.000;    0.000;    0.000
 599.77;11672.000;    0.000;    0.000
 599.93;12952.000;    0.000;    0.000
 600.09;14108.000;    0.000;    0.000
 600.25;14256.000;    0.000;    0.000
 600.41; 6824.000;    0.000;    0.000
 600.57;12036.000;    0.000;    0.000
 600.73;10908.000;    0.000;    0.000
 600.89;17352.000;    0.000;    0.000
 601.05;12080.000;    0.000;    0.000
 601.21;11264.000;    0.000;    0.000
 601.37;11536.000;    0.000;    0.000
 601.53;12768.000;    0.000;    0.000
 601.69;15212.000;    0.000;    0.000
 601.85; 9628.000;    0.000;    0.000
 602.01;13824.000;    0.000;    0.000
 602.17;15544.000;    0.000;    0.000
 602.33;11236.000;    0.000;    0.000
 602.49;10896.000;    0.000;    0.000
 602.65;14308.000;    0.000;    0.000
 602.81;18476.000;    0.000;    0.000
 602.97; 9476.000;    0.000;    0.000
 603.13;10920.000;    0.000;    0.000
 603.29;14640.000;    0.000;    0.000
 603.45;16792.000;    0.000;    0.000
 603.61;16532.000;    0.000;    0.000
 603.78;14892.000;    0.000;    0.000
 603.94;17132.000;    0.000;    0.000
 604.10;14404.000;    0.000;    0.000
 604.26;17632.000;    0.000;    0.000
 604.42;19252.000;    0.000;    0.000
 604.58; 9716.000;    0.000;    0.000
 604.74;13716.000;    0.000;    0.000
 604.90; 6828.000;    0.000;    0.000
 605.06; 8616.000;    0.000;    0.000
 605.22;14604.000;    0.000;    0.000
 605.38; 8220.000;    0.000;    0.000
 605.54;10320.000;    0.000;    0.000
 605.70; 9364.000;    0.000;    0.000
 605.86;11696.000;    0.000;    0.000
 606.01;13232.000;    0.000;    0.000
 606.17;11948.000;    0.000;    0.000
 606.33;11264.000;    0.000;    0.000
 606.49;14340.000;    0.000;    0.000
 606.65;14244.000;    0.000;    0.000
 606.81; 8688.000;    0.000;    0.000
 606.97;11936.000;    0.000;    0.000
 607.13; 9372.000;    0.000;    0.000
 607.29;12824.000;    0.000;    0.000
 607.45;14412.000;    0.000;    0.000
 607.61;14220.000;    0.000;    0.000
 607.77;15168.000;    0.000;    0.000
 607.93;17256.000;    0.000;    0.000
 608.09;12548.000;    0.000;    0.000
 608.25;11336.000;    0.000;    0.000
 608.41;14864.000;    0.000;    0.000
 608.57;15928.000;    0.000;    0.000
 608.73;14000.000;    0.000;    0.000
 608.89;13736.000;    0.000;    0.000
 609.05; 9848.000;    0.000;    0.000
 609.21;17168.000;    0.000;    0.000
 609.37;12936.000;    0.000;    0.000
 609.53;10204.000;    0.000;    0.000
 609.69;13564.000;    0.000;    0.000
 609.85;15352.000;    0.000;    0.000
 610.01;10344.000;    0.000;    0.000
 610.17;12392.000;    0.000;    0.000
 610.33; 9184.000;    0.000;    0.000
 610.49;13672.000;    0.000;    0.000
 610.65;12040.000;    0.000;    0.000
 610.81; 9140.000;    0.000;    0.000
 610.97;12624.000;    0.000;    0.000
 611.13;12580.000;    0.000;    0.000
 611.29;15464.000;    0.000;    0.000
 611.45;24456.000;    0.000;    0.000
 611.61;22420.000;    0.000;    0.000
 611.77;15616.000;    0.000;    0.000
 611.93; 9608.000;    0.000;    0.000
 612.09; 9488.000;    0.000;    0.000
 612.25; 9420.000;    0.000;    0.000
 612.41;17600.000;    0.000;    0.000
 612.57;14436.000;    0.000;    0.000
 612.73;12512.000;    0.000;    0.000
 612.89;14024.000;    0.000;    0.000
 613.04; 9032.000;    0.000;    0.000
 613.20;16032.000;    0.000;    0.000
 613.36; 9968.000;    0.000;    0.000
 613.52;12952.000;    0.000;    0.000
 613.68;10748.000;    0.000;    0.000
 613.84;11324.000;    0.000;    0.000
 614.00;15052.000;    0.000;    0.000
 614.16;14808.000;    0.000;    0.000
 614.32;13324.000;    0.000;    0.000
 614.48;19908.000;    0.000;    0.000
 614.64;18312.000;    0.000;    0.000
 614.80;13456.000;    0.000;    0.000
 614.96;14512.000;    0.000;    0.000
 615.12; 9132.000;    0.000;    0.000
 615.28;15672.000;    0.000;    0.000
 615.44;13328.000;    0.000;    0.000
 615.60;21860.000;    0.000;    0.000
 615.76;16064.000;    0.000;    0.000
 615.92;12808.000;    0.000;    0.000
 616.08;16200.000;    0.000;    0.000
 616.23;15400.000;    0.000;    0.000
 616.39;15532.000;    0.000;    0.000
 616.55;14292.000;    0.000;    0.000
 616.71;16276.000;    0.000;    0.000
 616.87;17428.000;    0.000;    0.000
 617.03;11752.000;    0.000;    0.000
 617.19; 8580.000;    0.000;    0.000
 617.35;18696.000;    0.000;    0.000
 617.51;19116.000;    0.000;    0.000
 617.67;12060.000;    0.000;    0.000
 617.83;10972.000;    0.000;    0.000
 617.99;10932.000;    0.000;    0.000
 618.15;17556.000;    0.000;    0.000
 618.31; 8580.000;    0.000;    0.000
 618.47; 8744.000;    0.000;    0.000
 618.63;20132.000;    0.000;    0.000
 618.78;18524.000;    0.000;    0.000
 618.94;15744.000;    0.000;    0.000
 619.10;13836.000;    0.000;    0.000
 619.26;11828.000;    0.000;    0.000
 619.42;13088.000;    0.000;    0.000
 619.58;12368.000;    0.000;    0.000
 619.74;14384.000;    0.000;    0.000
 619.90;16008.000;    0.000;    0.000
 620.06;11944.000;    0.000;    0.000
 620.22;12068.000;    0.000;    0.000
 620.38;11416.000;    0.000;    0.000
 620.54;13216.000;    0.000;    0.000
 620.70;13912.000;    0.000;    0.000
 620.85;12992.000;    0.000;    0.000
 621.01;15408.000;    0.000;    0.000
 621.17;12972.000;    0.000;    0.000
 621.33;13208.000;    0.000;    0.000
 621.49; 7576.000;    0.000;    0.000
 621.65;12340.000;    0.000;    0.000
 621.81;14504.000;    0.000;    0.000
 621.97;12612.000;    0.000;    0.000
 622.13;10992.000;    0.000;    0.000
 622.29; 8028.000;    0.000;    0.000
 622.45;15360.000;    0.000;    0.000
 622.61;15684.000;    0.000;    0.000
 622.76;12476.000;    0.000;    0.000
 622.92;12708.000;    0.000;    0.000
 623.08; 7024.000;    0.000;    0.000
 623.24; 9324.000;    0.000;    0.000
 623.40;14624.000;    0.000;    0.000
 623.56; 7316.000;    0.000;    0.000
 623.72;10620.000;    0.000;    0.000
 623.88;19636.000;    0.000;    0.000
 624.04; 8120.000;    0.000;    0.000
 624.20;15748.000;    0.000;    0.000
