X590
Integration time [ms]: 40000.000
Averaging Nr. [scans]: 1
Smoothing Nr. [pixels]: 0
Data measured with spectrometer [name]: 0604028U1
Wave   ;Sample   ;Dark     ;Reference;Scope
[nm]   ;[counts] ;[counts] ;[counts] 

 542.89;12728.000;    0.000;    0.000
 543.05;15488.000;    0.000;    0.000
 543.21;21504.000;    0.000;    0.000
 543.37;19596.000;    0.000;    0.000
 543.54;15936.000;    0.000;    0.000
 543.70;15364.000;    0.000;    0.000
 543.86;13552.000;    0.000;    0.000
 544.03;18516.000;    0.000;    0.000
 544.19;17440.000;    0.000;    0.000
 544.35;17948.000;    0.000;    0.000
 544.51;19288.000;    0.000;    0.000
 544.68;22064.000;    0.000;    0.000
 544.84;13432.000;    0.000;    0.000
 545.00;16564.000;    0.000;    0.000
 545.17;22612.000;    0.000;    0.000
 545.33;16220.000;    0.000;    0.000
 545.49;10144.000;    0.000;    0.000
 545.65;17068.000;    0.000;    0.000
 545.82;15720.000;    0.000;    0.000
 545.98;20012.000;    0.000;    0.000
 546.14;14376.000;    0.000;    0.000
 546.31;13132.000;    0.000;    0.000
 546.47;21784.000;    0.000;    0.000
 546.63;17116.000;    0.000;    0.000
 546.79;16044.000;    0.000;    0.000
 546.96;15284.000;    0.000;    0.000
 547.12;16300.000;    0.000;    0.000
 547.28;18684.000;    0.000;    0.000
 547.44; 9316.000;    0.000;    0.000
 547.61;12096.000;    0.000;    0.000
 547.77;12344.000;    0.000;    0.000
 547.93;20864.000;    0.000;    0.000
 548.10;16432.000;    0.000;    0.000
 548.26;14836.000;    0.000;    0.000
 548.42;17812.000;    0.000;    0.000
 548.58;22472.000;    0.000;    0.000
 548.75;20040.000;    0.000;    0.000
 548.91;12944.000;    0.000;    0.000
 549.07;15336.000;    0.000;    0.000
 549.23;23696.000;    0.000;    0.000
 549.40;19360.000;    0.000;    0.000
 549.56;17564.000;    0.000;    0.000
 549.72;13680.000;    0.000;    0.000
 549.88;19292.000;    0.000;    0.000
 550.05;16120.000;    0.000;    0.000
 550.21;14116.000;    0.000;    0.000
 550.37;14648.000;    0.000;    0.000
 550.53;12932.000;    0.000;    0.000
 550.70;12588.000;    0.000;    0.000
 550.86;18112.000;    0.000;    0.000
 551.02;19344.000;    0.000;    0.000
 551.19;18688.000;    0.000;    0.000
 551.35;12728.000;    0.000;    0.000
 551.51;14136.000;    0.000;    0.000
 551.67;11800.000;    0.000;    0.000
 551.84;15360.000;    0.000;    0.000
 552.00;21264.000;    0.000;    0.000
 552.16;18532.000;    0.000;    0.000
 552.32;11324.000;    0.000;    0.000
 552.49;18680.000;    0.000;    0.000
 552.65;12920.000;    0.000;    0.000
 552.81;17324.000;    0.000;    0.000
 552.97;11592.000;    0.000;    0.000
 553.14;16784.000;    0.000;    0.000
 553.30;14328.000;    0.000;    0.000
 553.46;13592.000;    0.000;    0.000
 553.62;18040.000;    0.000;    0.000
 553.79;18152.000;    0.000;    0.000
 553.95;19204.000;    0.000;    0.000
 554.11;20300.000;    0.000;    0.000
 554.27;21432.000;    0.000;    0.000
 554.43;19952.000;    0.000;    0.000
 554.60;15664.000;    0.000;    0.000
 554.76;20288.000;    0.000;    0.000
 554.92;12540.000;    0.000;    0.000
 555.08;20580.000;    0.000;    0.000
 555.25;16080.000;    0.000;    0.000
 555.41;16360.000;    0.000;    0.000
 555.57;14164.000;    0.000;    0.000
 555.73;18368.000;    0.000;    0.000
 555.90;13160.000;    0.000;    0.000
 556.06; 7940.000;    0.000;    0.000
 556.22;15912.000;    0.000;    0.000
 556.38;18064.000;    0.000;    0.000
 556.55;13200.000;    0.000;    0.000
 556.71;17612.000;    0.000;    0.000
 556.87;16288.000;    0.000;    0.000
 557.03;15116.000;    0.000;    0.000
 557.19; 8880.000;    0.000;    0.000
 557.36;15100.000;    0.000;    0.000
 557.52;17464.000;    0.000;    0.000
 557.68;19480.000;    0.000;    0.000
 557.84;11684.000;    0.000;    0.000
 558.01;12740.000;    0.000;    0.000
 558.17;14144.000;    0.000;    0.000
 558.33;18084.000;    0.000;    0.000
 558.49;20068.000;    0.000;    0.000
 558.65;14864.000;    0.000;    0.000
 558.82;18856.000;    0.000;    0.000
 558.98;16576.000;    0.000;    0.000
 559.14;20724.000;    0.000;    0.000
 559.30;12116.000;    0.000;    0.000
 559.47;18048.000;    0.000;    0.000
 559.63;17068.000;    0.000;    0.000
 559.79;18020.000;    0.000;    0.000
 559.95;18732.000;    0.000;    0.000
 560.11;18076.000;    0.000;    0.000
 560.28;23184.000;    0.000;    0.000
 560.44;14620.000;    0.000;    0.000
 560.60;20132.000;    0.000;    0.000
 560.76;17064.000;    0.000;    0.000
 560.93;16064.000;    0.000;    0.000
 561.09;12108.000;    0.000;    0.000
 561.25; 9352.000;    0.000;    0.000
 561.41;13460.000;    0.000;    0.000
 561.57;23104.000;    0.000;    0.000
 561.74;12564.000;    0.000;    0.000
 561.90;17360.000;    0.000;    0.000
 562.06;19612.000;    0.000;    0.000
 562.22;13268.000;    0.000;    0.000
 562.38;14060.000;    0.000;    0.000
 562.55;10788.000;    0.000;    0.000
 562.71;17064.000;    0.000;    0.000
 562.87;13644.000;    0.000;    0.000
 563.03;10756.000;    0.000;    0.000
 563.19;14032.000;    0.000;    0.000
 563.36;17356.000;    0.000;    0.000
 563.52;15460.000;    0.000;    0.000
 563.68;18880.000;    0.000;    0.000
 563.84;10980.000;    0.000;    0.000
 564.00;23200.000;    0.000;    0.000
 564.17;15944.000;    0.000;    0.000
 564.33;13820.000;    0.000;    0.000
 564.49;14596.000;    0.000;    0.000
 564.65;11964.000;    0.000;    0.000
 564.81;14636.000;    0.000;    0.000
 564.98;14796.000;    0.000;    0.000
 565.14;10840.000;    0.000;    0.000
 565.30;15788.000;    0.000;    0.000
 565.46;17624.000;    0.000;    0.000
 565.62;14624.000;    0.000;    0.000
 565.79;13612.000;    0.000;    0.000
 565.95;17156.000;    0.000;    0.000
 566.11;21220.000;    0.000;    0.000
 566.27;17752.000;    0.000;    0.000
 566.43;19320.000;    0.000;    0.000
 566.59;12560.000;    0.000;    0.000
 566.76;19972.000;    0.000;    0.000
 566.92;12072.000;    0.000;    0.000
 567.08;12400.000;    0.000;    0.000
 567.24;19268.000;    0.000;    0.000
 567.40;16580.000;    0.000;    0.000
 567.57;14128.000;    0.000;    0.000
 567.73;31320.000;    0.000;    0.000
 567.89;16284.000;    0.000;    0.000
 568.05;12236.000;    0.000;    0.000
 568.21;19424.000;    0.000;    0.000
 568.37; 9484.000;    0.000;    0.000
 568.54;12240.000;    0.000;    0.000
 568.70;14172.000;    0.000;    0.000
 568.86;16468.000;    0.000;    0.000
 569.02;12960.000;    0.000;    0.000
 569.18;16508.000;    0.000;    0.000
 569.34;10388.000;    0.000;    0.000
 569.51;14988.000;    0.000;    0.000
 569.67;20436.000;    0.000;    0.000
 569.83;13756.000;    0.000;    0.000
 569.99;17696.000;    0.000;    0.000
 570.15;15556.000;    0.000;    0.000
 570.31;13024.000;    0.000;    0.000
 570.48; 9952.000;    0.000;    0.000
 570.64;15604.000;    0.000;    0.000
 570.80;11388.000;    0.000;    0.000
 570.96;12388.000;    0.000;    0.000
 571.12;17336.000;    0.000;    0.000
 571.28;25404.000;    0.000;    0.000
 571.45; 8856.000;    0.000;    0.000
 571.61;15488.000;    0.000;    0.000
 571.77;14772.000;    0.000;    0.000
 571.93;22888.000;    0.000;    0.000
 572.09;11092.000;    0.000;    0.000
 572.25; 9896.000;    0.000;    0.000
 572.42;18580.000;    0.000;    0.000
 572.58;10280.000;    0.000;    0.000
 572.74;10124.000;    0.000;    0.000
 572.90;19228.000;    0.000;    0.000
 573.06;11784.000;    0.000;    0.000
 573.22;13080.000;    0.000;    0.000
 573.39;16340.000;    0.000;    0.000
 573.55;12012.000;    0.000;    0.000
 573.71;14788.000;    0.000;    0.000
 573.87;18580.000;    0.000;    0.000
 574.03; 9988.000;    0.000;    0.000
 574.19;13024.000;    0.000;    0.000
 574.35;11612.000;    0.000;    0.000
 574.52;11040.000;    0.000;    0.000
 574.68;18392.000;    0.000;    0.000
 574.84;18568.000;    0.000;    0.000
 575.00;13556.000;    0.000;    0.000
 575.16;13240.000;    0.000;    0.000
 575.32; 8416.000;    0.000;    0.000
 575.48;10648.000;    0.000;    0.000
 575.65;12940.000;    0.000;    0.000
 575.81;13928.000;    0.000;    0.000
 575.97;10480.000;    0.000;    0.000
 576.13;23412.000;    0.000;    0.000
 576.29;11096.000;    0.000;    0.000
 576.45;28224.000;    0.000;    0.000
 576.61;12120.000;    0.000;    0.000
 576.78;17896.000;    0.000;    0.000
 576.94;15976.000;    0.000;    0.000
 577.10;13700.000;    0.000;    0.000
 577.26;16096.000;    0.000;    0.000
 577.42;20860.000;    0.000;    0.000
 577.58;13456.000;    0.000;    0.000
 577.74;14584.000;    0.000;    0.000
 577.90;13204.000;    0.000;    0.000
 578.07;15836.000;    0.000;    0.000
 578.23;16888.000;    0.000;    0.000
 578.39;12696.000;    0.000;    0.000
 578.55;13040.000;    0.000;    0.000
 578.71;15328.000;    0.000;    0.000
 578.87;15772.000;    0.000;    0.000
 579.03;13832.000;    0.000;    0.000
 579.20;12144.000;    0.000;    0.000
 579.36;17128.000;    0.000;    0.000
 579.52;11240.000;    0.000;    0.000
 579.68;18028.000;    0.000;    0.000
 579.84;10276.000;    0.000;    0.000
 580.00;12352.000;    0.000;    0.000
 580.16;11012.000;    0.000;    0.000
 580.32;17960.000;    0.000;    0.000
 580.48; 7192.000;    0.000;    0.000
 580.65;22588.000;    0.000;    0.000
 580.81;10652.000;    0.000;    0.000
 580.97;13728.000;    0.000;    0.000
 581.13;15120.000;    0.000;    0.000
 581.29;10192.000;    0.000;    0.000
 581.45;10140.000;    0.000;    0.000
 581.61;13964.000;    0.000;    0.000
 581.77;12732.000;    0.000;    0.000
 581.94;12176.000;    0.000;    0.000
 582.10;20836.000;    0.000;    0.000
 582.26;22064.000;    0.000;    0.000
 582.42; 9920.000;    0.000;    0.000
 582.58;12608.000;    0.000;    0.000
 582.74;13748.000;    0.000;    0.000
 582.90;13236.000;    0.000;    0.000
 583.06;13120.000;    0.000;    0.000
 583.22;14476.000;    0.000;    0.000
 583.38;18016.000;    0.000;    0.000
 583.55;13496.000;    0.000;    0.000
 583.71;14612.000;    0.000;    0.000
 583.87;19500.000;    0.000;    0.000
 584.03;16260.000;    0.000;    0.000
 584.19;15844.000;    0.000;    0.000
 584.35; 8876.000;    0.000;    0.000
 584.51;16648.000;    0.000;    0.000
 584.67;15124.000;    0.000;    0.000
 584.83;13904.000;    0.000;    0.000
 584.99;12560.000;    0.000;    0.000
 585.16;15660.000;    0.000;    0.000
 585.32;23032.000;    0.000;    0.000
 585.48;15136.000;    0.000;    0.000
 585.64;15756.000;    0.000;    0.000
 585.80;12572.000;    0.000;    0.000
 585.96;19676.000;    0.000;    0.000
 586.12;15008.000;    0.000;    0.000
 586.28;21376.000;    0.000;    0.000
 586.44;11012.000;    0.000;    0.000
 586.60;20528.000;    0.000;    0.000
 586.77;12200.000;    0.000;    0.000
 586.93;18500.000;    0.000;    0.000
 587.09;13744.000;    0.000;    0.000
 587.25;17072.000;    0.000;    0.000
 587.41;15356.000;    0.000;    0.000
 587.57;21300.000;    0.000;    0.000
 587.73;15124.000;    0.000;    0.000
 587.89;19424.000;    0.000;    0.000
 588.05;24740.000;    0.000;    0.000
 588.21;12616.000;    0.000;    0.000
 588.37;19380.000;    0.000;    0.000
 588.53;21604.000;    0.000;    0.000
 588.70;18848.000;    0.000;    0.000
 588.86;19080.000;    0.000;    0.000
 589.02;17632.000;    0.000;    0.000
 589.18;16360.000;    0.000;    0.000
 589.34;22380.000;    0.000;    0.000
 589.50;15044.000;    0.000;    0.000
 589.66;22976.000;    0.000;    0.000
 589.82;20920.000;    0.000;    0.000
 589.98;20664.000;    0.000;    0.000
 590.14;16836.000;    0.000;    0.000
 590.30;13116.000;    0.000;    0.000
 590.46;19312.000;    0.000;    0.000
 590.62;22120.000;    0.000;    0.000
 590.78;14124.000;    0.000;    0.000
 590.95;20804.000;    0.000;    0.000
 591.11;21668.000;    0.000;    0.000
 591.27;18220.000;    0.000;    0.000
 591.43;18988.000;    0.000;    0.000
 591.59;24136.000;    0.000;    0.000
 591.75;23920.000;    0.000;    0.000
 591.91;20364.000;    0.000;    0.000
 592.07;23500.000;    0.000;    0.000
 592.23;22772.000;    0.000;    0.000
 592.39;22792.000;    0.000;    0.000
 592.55;19120.000;    0.000;    0.000
 592.71;18604.000;    0.000;    0.000
 592.87;18152.000;    0.000;    0.000
 593.03;18104.000;    0.000;    0.000
 593.19;18224.000;    0.000;    0.000
 593.35;18712.000;    0.000;    0.000
 593.52;21480.000;    0.000;    0.000
 593.68;16864.000;    0.000;    0.000
 593.84;18196.000;    0.000;    0.000
 594.00;18660.000;    0.000;    0.000
 594.16;21592.000;    0.000;    0.000
 594.32;16800.000;    0.000;    0.000
 594.48;20336.000;    0.000;    0.000
 594.64;17692.000;    0.000;    0.000
 594.80;16432.000;    0.000;    0.000
 594.96;13944.000;    0.000;    0.000
 595.12;18616.000;    0.000;    0.000
 595.28;13200.000;    0.000;    0.000
 595.44;17052.000;    0.000;    0.000
 595.60;11032.000;    0.000;    0.000
 595.76;10924.000;    0.000;    0.000
 595.92;15608.000;    0.000;    0.000
 596.08;10412.000;    0.000;    0.000
 596.24;13360.000;    0.000;    0.000
 596.40;18440.000;    0.000;    0.000
 596.56;13172.000;    0.000;    0.000
 596.73;13000.000;    0.000;    0.000
 596.89;19316.000;    0.000;    0.000
 597.05;16340.000;    0.000;    0.000
 597.21;13724.000;    0.000;    0.000
 597.37;15960.000;    0.000;    0.000
 597.53;14388.000;    0.000;    0.000
 597.69;13104.000;    0.000;    0.000
 597.85;15220.000;    0.000;    0.000
 598.01;12660.000;    0.000;    0.000
 598.17;13688.000;    0.000;    0.000
 598.33;13672.000;    0.000;    0.000
 598.49;15872.000;    0.000;    0.000
 598.65;10788.000;    0.000;    0.000
 598.81;12308.000;    0.000;    0.000
 598.97;10840.000;    0.000;    0.000
 599.13;13600.000;    0.000;    0.000
 599.29;15372.000;    0.000;    0.000
 599.45;10876.000;    0.000;    0.000
 599.61;16020.000;    0.000;    0.000
 599.77;12304.000;    0.000;    0.000
 599.93;13808.000;    0.000;    0.000
 600.09;14812.000;    0.000;    0.000
 600.25;14948.000;    0.000;    0.000
 600.41; 7100.000;    0.000;    0.000
 600.57;12588.000;    0.000;    0.000
 600.73;11268.000;    0.000;    0.000
 600.89;18192.000;    0.000;    0.000
 601.05;12712.000;    0.000;    0.000
 601.21;11884.000;    0.000;    0.000
 601.37;11968.000;    0.000;    0.000
 601.53;13280.000;    0.000;    0.000
 601.69;15940.000;    0.000;    0.000
 601.85;10192.000;    0.000;    0.000
 602.01;14464.000;    0.000;    0.000
 602.17;14160.000;    0.000;    0.000
 602.33;11600.000;    0.000;    0.000
 602.49;11312.000;    0.000;    0.000
 602.65;15192.000;    0.000;    0.000
 602.81;19084.000;    0.000;    0.000
 602.97; 9724.000;    0.000;    0.000
 603.13;11328.000;    0.000;    0.000
 603.29;15392.000;    0.000;    0.000
 603.45;17508.000;    0.000;    0.000
 603.61;17200.000;    0.000;    0.000
 603.78;15660.000;    0.000;    0.000
 603.94;17940.000;    0.000;    0.000
 604.10;15304.000;    0.000;    0.000
 604.26;18568.000;    0.000;    0.000
 604.42;20296.000;    0.000;    0.000
 604.58;10420.000;    0.000;    0.000
 604.74;14148.000;    0.000;    0.000
 604.90; 7088.000;    0.000;    0.000
 605.06; 9076.000;    0.000;    0.000
 605.22;15156.000;    0.000;    0.000
 605.38; 8584.000;    0.000;    0.000
 605.54;10740.000;    0.000;    0.000
 605.70;10028.000;    0.000;    0.000
 605.86;12004.000;    0.000;    0.000
 606.01;13384.000;    0.000;    0.000
 606.17;12460.000;    0.000;    0.000
 606.33;11724.000;    0.000;    0.000
 606.49;14852.000;    0.000;    0.000
 606.65;14724.000;    0.000;    0.000
 606.81; 8924.000;    0.000;    0.000
 606.97;12484.000;    0.000;    0.000
 607.13; 9616.000;    0.000;    0.000
 607.29;13072.000;    0.000;    0.000
 607.45;15140.000;    0.000;    0.000
 607.61;14880.000;    0.000;    0.000
 607.77;15760.000;    0.000;    0.000
 607.93;17896.000;    0.000;    0.000
 608.09;13040.000;    0.000;    0.000
 608.25;12100.000;    0.000;    0.000
 608.41;15284.000;    0.000;    0.000
 608.57;16656.000;    0.000;    0.000
 608.73;14628.000;    0.000;    0.000
 608.89;14316.000;    0.000;    0.000
 609.05;10140.000;    0.000;    0.000
 609.21;17852.000;    0.000;    0.000
 609.37;13768.000;    0.000;    0.000
 609.53;10504.000;    0.000;    0.000
 609.69;14168.000;    0.000;    0.000
 609.85;16160.000;    0.000;    0.000
 610.01;10732.000;    0.000;    0.000
 610.17;13116.000;    0.000;    0.000
 610.33; 8676.000;    0.000;    0.000
 610.49;13896.000;    0.000;    0.000
 610.65;12820.000;    0.000;    0.000
 610.81; 9568.000;    0.000;    0.000
 610.97;13084.000;    0.000;    0.000
 611.13;12980.000;    0.000;    0.000
 611.29;15952.000;    0.000;    0.000
 611.45;25716.000;    0.000;    0.000
 611.61;23464.000;    0.000;    0.000
 611.77;16204.000;    0.000;    0.000
 611.93; 9944.000;    0.000;    0.000
 612.09; 9948.000;    0.000;    0.000
 612.25; 9656.000;    0.000;    0.000
 612.41;18588.000;    0.000;    0.000
 612.57;15056.000;    0.000;    0.000
 612.73;13000.000;    0.000;    0.000
 612.89;14440.000;    0.000;    0.000
 613.04; 9188.000;    0.000;    0.000
 613.20;16732.000;    0.000;    0.000
 613.36;10288.000;    0.000;    0.000
 613.52;13632.000;    0.000;    0.000
 613.68;11100.000;    0.000;    0.000
 613.84;12048.000;    0.000;    0.000
 614.00;15756.000;    0.000;    0.000
 614.16;15272.000;    0.000;    0.000
 614.32;13996.000;    0.000;    0.000
 614.48;20736.000;    0.000;    0.000
 614.64;19212.000;    0.000;    0.000
 614.80;13720.000;    0.000;    0.000
 614.96;15100.000;    0.000;    0.000
 615.12; 9488.000;    0.000;    0.000
 615.28;16624.000;    0.000;    0.000
 615.44;14076.000;    0.000;    0.000
 615.60;22708.000;    0.000;    0.000
 615.76;16640.000;    0.000;    0.000
 615.92;13492.000;    0.000;    0.000
 616.08;16828.000;    0.000;    0.000
 616.23;15692.000;    0.000;    0.000
 616.39;15900.000;    0.000;    0.000
 616.55;14756.000;    0.000;    0.000
 616.71;16956.000;    0.000;    0.000
 616.87;18388.000;    0.000;    0.000
 617.03;12020.000;    0.000;    0.000
 617.19; 8776.000;    0.000;    0.000
 617.35;19540.000;    0.000;    0.000
 617.51;19812.000;    0.000;    0.000
 617.67;12632.000;    0.000;    0.000
 617.83;11640.000;    0.000;    0.000
 617.99;11424.000;    0.000;    0.000
 618.15;17996.000;    0.000;    0.000
 618.31; 8920.000;    0.000;    0.000
 618.47; 9100.000;    0.000;    0.000
 618.63;20792.000;    0.000;    0.000
 618.78;18968.000;    0.000;    0.000
 618.94;16512.000;    0.000;    0.000
 619.10;14584.000;    0.000;    0.000
 619.26;12296.000;    0.000;    0.000
 619.42;13668.000;    0.000;    0.000
 619.58;12888.000;    0.000;    0.000
 619.74;15192.000;    0.000;    0.000
 619.90;16616.000;    0.000;    0.000
 620.06;12064.000;    0.000;    0.000
 620.22;12500.000;    0.000;    0.000
 620.38;12208.000;    0.000;    0.000
 620.54;13964.000;    0.000;    0.000
 620.70;14516.000;    0.000;    0.000
 620.85;13524.000;    0.000;    0.000
 621.01;14544.000;    0.000;    0.000
 621.17;13484.000;    0.000;    0.000
 621.33;13820.000;    0.000;    0.000
 621.49; 7488.000;    0.000;    0.000
 621.65;12932.000;    0.000;    0.000
 621.81;14932.000;    0.000;    0.000
 621.97;13072.000;    0.000;    0.000
 622.13;11528.000;    0.000;    0.000
 622.29; 8316.000;    0.000;    0.000
 622.45;15892.000;    0.000;    0.000
 622.61;16228.000;    0.000;    0.000
 622.76;13064.000;    0.000;    0.000
 622.92;13124.000;    0.000;    0.000
 623.08; 7152.000;    0.000;    0.000
 623.24; 9760.000;    0.000;    0.000
 623.40;15280.000;    0.000;    0.000
 623.56; 7416.000;    0.000;    0.000
 623.72;10820.000;    0.000;    0.000
 623.88;20644.000;    0.000;    0.000
 624.04; 8492.000;    0.000;    0.000
 624.20;16632.000;    0.000;    0.000
